File: xrd_data/mp-1245006_Ti.csv
# 2theta, Intensity
10,0.0277407
10.18,0.0286765
10.36,0.0296727
10.54,0.0307361
10.72,0.0318747
10.9,0.0330984
11.08,0.0344188
11.26,0.0358504
11.44,0.0374111
11.62,0.039124
11.8,0.0410185
11.98,0.0431336
12.16,0.0455222
12.34,0.0482576
12.52,0.0514447
12.7,0.055239
12.88,0.0598808
13.06,0.0657589
13.24,0.0735411
13.42,0.0844591
13.6,0.101006
13.78,0.128902
13.96,0.183879
14.14,0.323938
14.32,0.939309
14.5,8.7807
14.68,3.64859
14.86,0.584553
15.04,0.272157
15.22,0.184586
15.4,0.150441
15.58,0.135743
15.76,0.130073
15.94,0.129409
16.12,0.131976
16.3,0.136942
16.48,0.143932
16.66,0.152821
16.84,0.163651
17.02,0.176589
17.2,0.191924
17.38,0.210071
17.56,0.231608
17.74,0.257317
17.92,0.288265
18.1,0.32592
18.28,0.37234
18.46,0.430479
18.64,0.504689
18.82,0.60161
19,0.731782
19.18,0.912796
19.36,1.1759
19.54,1.58127
19.72,2.25842
19.9,3.53582
20.08,6.53183
20.26,19.9368
20.44,68.4972
20.62,401.244
20.8,78.5579
20.98,15.2279
21.16,6.60951
21.34,3.88496
21.52,2.74975
21.7,2.26361
21.88,2.15891
22.06,2.41421
22.24,3.24876
22.42,5.5713
22.6,14.4689
22.78,114.639
22.96,165.332
23.14,17.6749
23.32,5.93448
23.5,3.03381
23.68,1.8749
23.86,1.29215
24.04,0.955776
24.22,0.742808
24.4,0.598748
24.58,0.496357
24.76,0.420753
24.94,0.363228
25.12,0.318401
25.3,0.282797
25.48,0.254088
25.66,0.230671
25.84,0.211414
26.02,0.195508
26.2,0.182367
26.38,0.171574
26.56,0.162838
26.74,0.155979
26.92,0.15092
27.1,0.147693
27.28,0.14647
27.46,0.147621
27.64,0.151836
27.82,0.160366
28,0.175546
28.18,0.202047
28.36,0.250205
28.54,0.346804
28.72,0.581237
28.9,1.44113
29.08,11.0426
29.26,15.2228
29.44,5.4019
29.62,0.96036
29.8,0.45061
29.98,0.289351
30.16,0.216545
30.34,0.177728
30.52,0.155072
30.7,0.141269
30.88,0.132887
31.06,0.128181
31.24,0.126248
31.42,0.126681
31.6,0.129449
31.78,0.134939
31.96,0.144236
32.14,0.160033
32.32,0.189868
32.5,0.261689
32.68,0.566978
32.86,4.35401
33.04,1.72885
33.22,0.413571
33.4,0.291645
33.58,0.275451
33.76,0.292032
33.94,0.333117
34.12,0.420949
34.3,0.918329
34.48,1.41655
34.66,0.805508
34.84,1.0651
35.02,1.73895
35.2,3.75197
35.38,16.9039
35.56,107.429
35.74,14.2499
35.92,6.4073
36.1,4.52946
36.28,1.8791
36.46,1.69077
36.64,1.95582
36.82,2.70683
37,4.51716
37.18,9.97467
37.36,43.6501
37.54,324.095
37.72,46.6811
37.9,10.2014
38.08,4.46565
38.26,2.53409
38.44,1.70572
38.62,1.56423
38.8,0.911391
38.98,0.688333
39.16,0.554211
39.34,0.461445
39.52,0.394589
39.7,0.34556
39.88,0.309707
40.06,0.284412
40.24,0.268573
40.42,0.262657
40.6,0.269569
40.78,0.297719
40.96,0.372844
41.14,0.606831
41.32,2.31798
41.5,8.00927
41.68,3.41818
41.86,19.1393
42.04,3.70831
42.22,0.835881
42.4,0.436032
42.58,0.339254
42.76,0.760246
42.94,0.528422
43.12,0.215588
43.3,0.18086
43.48,0.173442
43.66,0.178736
43.84,0.197878
44.02,0.241932
44.2,0.350985
44.38,0.735583
44.56,4.67317
44.74,9.08255
44.92,1.06231
45.1,0.452146
45.28,0.327111
45.46,0.299207
45.64,0.311711
45.82,0.354586
46,0.434201
46.18,0.573705
46.36,0.833168
46.54,1.3991
46.72,3.21515
46.9,10.1788
47.08,94.771
47.26,24.9806
47.44,4.39696
47.62,2.00967
47.8,1.4942
47.98,1.85716
48.16,5.56118
48.34,44.0467
48.52,7.9458
48.7,1.79964
48.88,1.02294
49.06,1.61412
49.24,6.85562
49.42,1.03449
49.6,0.40132
49.78,0.264461
49.96,0.205703
50.14,0.175109
50.32,0.163341
50.5,0.190354
50.68,0.691912
50.86,0.723679
51.04,0.165321
51.22,0.114911
51.4,0.0998848
51.58,0.0934432
51.76,0.0913037
51.94,0.0931263
52.12,0.101185
52.3,0.124597
52.48,0.21194
52.66,1.12004
52.84,2.14796
53.02,0.283671
53.2,0.140193
53.38,0.109008
53.56,0.0997077
53.74,0.0988341
53.92,0.104228
54.1,0.123569
54.28,0.312251
54.46,0.271401
54.64,0.157358
54.82,0.172044
55,0.212173
55.18,0.295437
55.36,0.546085
55.54,3.04824
55.72,3.25588
55.9,1.149
56.08,3.24766
56.26,5.50664
56.44,33.7001
56.62,17.3948
56.8,16.543
56.98,2.6759
57.16,4.53897
57.34,6.28178
57.52,3.37972
57.7,1.59132
57.88,0.474735
58.06,0.344468
58.24,0.646626
58.42,0.965881
58.6,0.250929
58.78,0.187529
58.96,0.17279
59.14,0.172628
59.32,0.183009
59.5,0.206694
59.68,0.258671
59.86,0.514498
59.98,1.04364